Cooling Curve : Full Field:p/k=6:Log(To) = 7.5:[Fe/H] = -1.5											

log(T)	ne	nH	nt	log(lambda net)	log(lambda norm)	log(U)	log(taucool)	P12	rho24	Ci	mubar

7.500	0.0339	0.0300	0.0319	-25.88	-22.91	-9.366	14.73	289.2	0.072	674.8	0.966
7.444	0.0407	0.0361	0.0384	-25.74	-22.93	-9.342	14.69	303.4	0.076	630.2	0.966
7.395	0.0472	0.0418	0.0444	-25.63	-22.95	-9.327	14.66	314.4	0.088	596.1	0.966
7.346	0.0544	0.0482	0.0513	-25.53	-22.97	-9.314	14.64	323.6	0.102	563.1	0.966
7.296	0.0625	0.0554	0.0589	-25.42	-22.99	-9.304	14.60	331.4	0.117	531.5	0.966
7.245	0.0717	0.0635	0.0675	-25.32	-23.01	-9.295	14.57	338.0	0.134	501.4	0.966
7.194	0.0820	0.0726	0.0773	-25.22	-23.02	-9.288	14.53	343.8	0.154	472.7	0.966
7.142	0.0937	0.0830	0.0883	-25.12	-23.04	-9.282	14.50	348.8	0.176	445.4	0.966
7.091	0.1069	0.0946	0.1007	-25.02	-23.05	-9.276	14.46	353.1	0.201	419.6	0.966
7.038	0.1218	0.1079	0.1148	-24.92	-23.07	-9.272	14.42	356.8	0.228	395.2	0.966
6.986	0.1386	0.1228	0.1307	-24.83	-23.08	-9.268	14.39	360.1	0.260	372.0	0.966
6.934	0.1577	0.1397	0.1486	-24.73	-23.10	-9.264	14.35	362.9	0.296	350.2	0.966
6.881	0.1793	0.1588	0.1690	-24.63	-23.11	-9.261	14.31	365.4	0.336	329.6	0.966
6.828	0.2037	0.1804	0.1920	-24.54	-23.13	-9.258	14.28	367.6	0.382	310.1	0.966
6.775	0.2313	0.2048	0.2180	-24.44	-23.14	-9.256	14.23	369.5	0.434	291.8	0.966
6.722	0.2625	0.2325	0.2474	-24.34	-23.15	-9.254	14.19	371.2	0.493	274.5	0.966
6.669	0.2979	0.2638	0.2807	-24.24	-23.16	-9.252	14.15	372.6	0.559	258.2	0.966
6.616	0.3379	0.2993	0.3185	-24.13	-23.16	-9.251	14.09	373.9	0.634	242.9	0.966
6.562	0.3831	0.3394	0.3611	-24.03	-23.17	-9.250	14.05	375.1	0.719	228.4	0.966
6.509	0.4343	0.3847	0.4094	-23.92	-23.17	-9.249	14.00	376.1	0.815	214.8	0.966
6.456	0.4923	0.4361	0.4640	-23.81	-23.16	-9.247	13.94	377.0	0.924	202.0	0.966
6.402	0.5579	0.4942	0.5259	-23.68	-23.15	-9.247	13.87	377.7	1.047	189.9	0.966
6.349	0.6321	0.5600	0.5959	-23.54	-23.12	-9.246	13.78	378.4	1.186	178.6	0.966
6.295	0.7161	0.6344	0.6751	-23.39	-23.07	-9.245	13.69	379.0	1.344	167.9	0.966
6.242	0.8112	0.7186	0.7647	-23.24	-23.03	-9.244	13.59	379.6	1.522	157.9	0.966
6.188	0.9188	0.8139	0.8661	-23.12	-23.02	-9.244	13.52	380.0	1.724	148.5	0.966
6.135	1.041	0.9218	0.9809	-23.01	-23.02	-9.243	13.47	380.4	1.953	139.6	0.966
6.081	1.178	1.044	1.111	-22.91	-23.02	-9.243	13.42	380.8	2.212	131.2	0.966
6.027	1.334	1.182	1.258	-22.79	-23.01	-9.243	13.36	381.1	2.504	123.4	0.966
5.974	1.511	1.338	1.424	-22.65	-22.99	-9.242	13.27	381.4	2.836	116.0	0.966
5.920	1.711	1.515	1.613	-22.51	-22.95	-9.242	13.19	381.7	3.211	109.0	0.966
5.866	1.937	1.716	1.826	-22.35	-22.89	-9.242	13.08	381.9	3.635	102.5	0.966
5.813	2.192	1.942	2.067	-22.14	-22.79	-9.242	12.93	382.1	4.115	96.36	0.966
5.759	2.481	2.198	2.339	-21.93	-22.70	-9.242	12.77	382.2	4.658	90.59	0.966
5.706	2.809	2.488	2.648	-21.79	-22.66	-9.241	12.68	382.4	5.272	85.17	0.966
5.652	3.179	2.817	2.997	-21.66	-22.64	-9.241	12.61	382.5	5.968	80.06	0.966
5.598	3.599	3.188	3.393	-21.52	-22.61	-9.241	12.52	382.6	6.755	75.26	0.966
5.544	4.073	3.609	3.840	-21.33	-22.52	-9.241	12.38	382.7	7.646	70.75	0.966
5.491	4.607	4.082	4.344	-21.08	-22.38	-9.241	12.19	382.8	8.648	66.53	0.966
5.438	5.209	4.616	4.912	-20.83	-22.24	-9.241	11.99	382.9	9.779	62.57	0.966
5.384	5.895	5.223	5.558	-20.62	-22.13	-9.241	11.84	383.0	11.07	58.83	0.966
5.330	6.671	5.912	6.291	-20.45	-22.07	-9.241	11.72	383.0	12.53	55.30	0.966
5.277	7.550	6.691	7.120	-20.32	-22.05	-9.240	11.64	383.1	14.18	51.98	0.966
5.223	8.544	7.573	8.059	-20.21	-22.05	-9.241	11.59	383.1	16.04	48.86	0.966
5.169	9.667	8.571	9.120	-20.11	-22.06	-9.241	11.54	383.1	18.16	45.93	0.967
5.116	10.94	9.700	10.32	-20.02	-22.08	-9.240	11.50	383.0	20.55	43.17	0.967
5.062	12.37	10.98	11.68	-19.94	-22.10	-9.241	11.48	382.9	23.26	40.58	0.967
5.008	13.98	12.42	13.22	-19.87	-22.14	-9.241	11.46	382.8	26.32	38.13	0.968
4.955	15.79	14.05	14.95	-19.82	-22.19	-9.241	11.46	382.5	29.76	35.85	0.968
4.902	17.80	15.87	16.89	-19.77	-22.25	-9.242	11.47	382.1	33.62	33.71	0.969
4.849	20.07	17.94	19.09	-19.73	-22.32	-9.242	11.48	381.7	38.01	31.69	0.970
4.795	22.64	20.30	21.60	-19.70	-22.39	-9.243	11.50	381.1	43.00	29.77	0.972
4.741	25.54	22.97	24.44	-19.65	-22.45	-9.244	11.50	380.5	48.66	27.96	0.974
4.688	28.80	26.00	27.66	-19.60	-22.50	-9.244	11.51	379.8	55.07	26.26	0.975
4.634	32.45	29.39	31.27	-19.52	-22.53	-9.246	11.48	379.2	62.26	24.68	0.977
4.585	36.27	32.93	35.04	-19.43	-22.53	-9.246	11.44	378.7	69.77	23.30	0.978
4.540	40.16	36.54	38.89	-19.32	-22.51	-9.246	11.37	378.3	77.42	22.10	0.979
4.499	44.07	40.19	42.77	-19.20	-22.48	-9.246	11.29	377.8	85.15	21.06	0.981
4.444	49.78	45.58	48.50	-19.06	-22.45	-9.247	11.20	377.1	96.56	19.76	0.982
4.397	55.23	50.77	54.03	-18.97	-22.44	-9.248	11.16	376.3	107.6	18.70	0.985
4.356	60.41	55.81	59.39	-18.91	-22.47	-9.249	11.14	375.4	118.2	17.82	0.987
4.308	66.99	62.37	66.37	-18.89	-22.54	-9.251	11.16	373.9	132.1	16.82	0.991
4.265	73.24	68.84	73.25	-18.91	-22.64	-9.253	11.22	372.2	145.8	15.98	0.996
4.217	80.65	76.93	81.86	-18.97	-22.79	-9.256	11.32	369.5	163.0	15.06	1.003
4.172	87.63	85.22	90.69	-19.06	-22.96	-9.261	11.45	365.9	180.5	14.24	1.013
4.129	94.13	94.08	100.1	-19.20	-23.18	-9.267	11.62	361.1	199.3	13.46	1.026
4.084	99.92	104.4	111.1	-19.43	-23.47	-9.276	11.88	353.5	221.1	12.64	1.048
4.031	95.08	118.0	125.5	-20.05	-24.12	-9.309	12.47	345.2	249.9	11.75	1.133