Cooling Curve : Full Field:p/k=6:Log(To) = 7.5:Solar											

log(T)	ne	nH	nt	log(lambda net)	log(lambda norm)	log(U)	log(taucool)	P12	rho24	Ci	mubar

7.500	0.0363	0.0300	0.0330	-25.65	-22.73	-9.343	14.54	304.4	0.087	652.1	1.034
7.445	0.0435	0.0360	0.0395	-25.50	-22.74	-9.320	14.50	319.1	0.086	609.7	1.034
7.396	0.0504	0.0417	0.0458	-25.37	-22.74	-9.305	14.45	330.7	0.099	576.7	1.034
7.347	0.0581	0.0480	0.0528	-25.25	-22.74	-9.292	14.40	340.4	0.115	544.8	1.034
7.297	0.0668	0.0552	0.0607	-25.12	-22.73	-9.281	14.34	348.6	0.132	514.2	1.034
7.246	0.0766	0.0633	0.0696	-24.99	-22.72	-9.273	14.28	355.7	0.151	485.1	1.034
7.195	0.0876	0.0725	0.0797	-24.85	-22.70	-9.265	14.21	361.7	0.173	457.3	1.034
7.143	0.1001	0.0828	0.0910	-24.71	-22.67	-9.260	14.13	367.0	0.198	431.0	1.034
7.091	0.1141	0.0944	0.1038	-24.56	-22.63	-9.255	14.04	371.5	0.225	406.0	1.034
7.039	0.1301	0.1076	0.1183	-24.41	-22.60	-9.250	13.95	375.4	0.257	382.3	1.034
6.987	0.1481	0.1225	0.1347	-24.28	-22.58	-9.245	13.88	378.9	0.292	359.9	1.034
6.934	0.1684	0.1394	0.1532	-24.18	-22.59	-9.243	13.84	381.9	0.333	338.8	1.034
6.882	0.1915	0.1584	0.1742	-24.08	-22.60	-9.239	13.80	384.5	0.378	318.9	1.034
6.829	0.2175	0.1800	0.1979	-23.99	-22.62	-9.236	13.77	386.8	0.430	300.0	1.034
6.776	0.2470	0.2044	0.2247	-23.88	-22.62	-9.234	13.72	388.8	0.488	282.3	1.034
6.723	0.2804	0.2320	0.2551	-23.75	-22.61	-9.232	13.64	390.5	0.554	265.5	1.034
6.670	0.3181	0.2633	0.2894	-23.62	-22.58	-9.230	13.57	392.1	0.628	249.8	1.034
6.617	0.3608	0.2986	0.3283	-23.48	-22.56	-9.229	13.49	393.4	0.713	234.9	1.034
6.563	0.4091	0.3386	0.3723	-23.35	-22.53	-9.228	13.41	394.6	0.808	221.0	1.035
6.510	0.4637	0.3839	0.4220	-23.22	-22.51	-9.227	13.34	395.7	0.916	207.8	1.035
6.457	0.5255	0.4351	0.4784	-23.06	-22.46	-9.225	13.23	396.6	1.039	195.4	1.035
6.403	0.5955	0.4931	0.5421	-22.88	-22.39	-9.225	13.11	397.3	1.177	183.7	1.035
6.350	0.6746	0.5587	0.6142	-22.65	-22.27	-9.224	12.93	398.0	1.334	172.7	1.035
6.296	0.7640	0.6330	0.6958	-22.40	-22.12	-9.224	12.74	398.6	1.511	162.4	1.035
6.243	0.8652	0.7169	0.7881	-22.17	-22.00	-9.222	12.56	399.1	1.711	152.7	1.035
6.189	0.9797	0.8120	0.8926	-22.02	-21.96	-9.222	12.47	399.6	1.938	143.6	1.035
6.136	1.109	0.9196	1.011	-21.91	-21.96	-9.221	12.41	400.0	2.195	135.0	1.035
6.082	1.256	1.041	1.145	-21.82	-21.98	-9.221	12.38	400.3	2.486	126.9	1.035
6.028	1.422	1.179	1.296	-21.72	-21.99	-9.222	12.33	400.6	2.815	119.3	1.036
5.975	1.61	1.335	1.468	-21.62	-21.99	-9.221	12.28	400.9	3.187	112.2	1.036
5.921	1.822	1.511	1.662	-21.51	-21.99	-9.221	12.23	401.1	3.608	105.4	1.036
5.868	2.062	1.711	1.881	-21.38	-21.96	-9.220	12.15	401.3	4.084	99.13	1.036
5.814	2.333	1.936	2.129	-21.22	-21.91	-9.220	12.05	401.5	4.622	93.20	1.036
5.760	2.641	2.192	2.409	-21.05	-21.86	-9.221	11.93	401.7	5.232	87.62	1.036
5.707	2.985	2.477	2.724	-20.91	-21.82	-9.220	11.84	401.8	5.914	82.43	1.036
5.654	3.378	2.804	3.083	-20.77	-21.79	-9.220	11.76	401.9	6.694	77.48	1.036
5.600	3.823	3.174	3.489	-20.63	-21.76	-9.220	11.67	402.0	7.577	72.84	1.036
5.547	4.325	3.592	3.948	-20.46	-21.70	-9.219	11.56	402.1	8.574	68.48	1.036
5.493	4.894	4.065	4.468	-20.27	-21.61	-9.219	11.42	402.2	9.703	64.38	1.036
5.440	5.524	4.589	5.045	-20.09	-21.53	-9.220	11.29	402.2	10.95	60.59	1.036
5.389	6.223	5.17	5.684	-19.92	-21.47	-9.219	11.17	402.2	12.34	57.09	1.037
5.336	7.018	5.832	6.412	-19.77	-21.43	-9.220	11.08	402.3	13.92	53.75	1.037
5.283	7.929	6.591	7.245	-19.65	-21.41	-9.220	11.01	402.3	15.73	50.57	1.037
5.230	8.969	7.458	8.199	-19.53	-21.40	-9.219	10.94	402.3	17.80	47.53	1.037
5.176	10.15	8.441	9.279	-19.43	-21.41	-9.219	10.90	402.2	20.15	44.68	1.037
5.122	11.48	9.553	10.50	-19.35	-21.43	-9.220	10.87	402.2	22.80	41.99	1.037
5.069	12.98	10.81	11.89	-19.27	-21.46	-9.219	10.84	402.1	25.81	39.47	1.038
5.015	14.68	12.24	13.45	-19.20	-21.50	-9.220	10.83	401.9	29.21	37.09	1.038
4.961	16.60	13.85	15.23	-19.14	-21.54	-9.220	10.82	401.8	33.06	34.86	1.039
4.907	18.77	15.67	17.23	-19.08	-21.59	-9.221	10.81	401.5	37.41	32.76	1.039
4.854	21.21	17.74	19.50	-19.03	-21.65	-9.220	10.82	401.3	42.34	30.79	1.040
4.800	23.95	20.07	22.06	-18.98	-21.70	-9.221	10.82	400.9	47.90	28.93	1.041
4.746	27.07	22.71	24.96	-18.94	-21.77	-9.222	10.83	400.7	54.20	27.19	1.042
4.694	30.51	25.63	28.18	-18.90	-21.83	-9.221	10.84	400.4	61.19	25.58	1.043
4.647	33.97	28.58	31.42	-18.86	-21.89	-9.221	10.85	400.1	68.23	24.21	1.043
4.604	37.43	31.54	34.68	-18.82	-21.94	-9.222	10.85	399.7	75.30	23.04	1.044
4.546	42.62	36.01	39.58	-18.77	-22.00	-9.223	10.86	399.3	85.95	21.55	1.046
4.495	47.79	40.48	44.50	-18.72	-22.04	-9.224	10.86	398.7	96.63	20.31	1.047
4.450	52.90	44.94	49.40	-18.67	-22.09	-9.224	10.85	398.1	107.3	19.26	1.049
4.409	57.92	49.36	54.26	-18.64	-22.14	-9.225	10.86	397.5	117.8	18.37	1.050
4.361	64.44	55.19	60.67	-18.62	-22.21	-9.226	10.89	396.5	131.7	17.35	1.053
4.318	70.79	60.98	67.04	-18.62	-22.29	-9.226	10.93	395.3	145.6	16.48	1.056
4.269	78.49	68.19	74.97	-18.63	-22.40	-9.229	10.98	393.6	162.8	15.55	1.061
4.225	85.94	75.42	82.91	-18.66	-22.51	-9.231	11.05	391.6	180.0	14.75	1.066
4.185	93.17	82.71	90.93	-18.69	-22.62	-9.234	11.12	389.3	197.4	14.04	1.072
4.141	101.5	91.62	100.7	-18.73	-22.74	-9.237	11.20	386.1	218.7	13.29	1.081
4.099	109.7	100.8	110.8	-18.77	-22.86	-9.241	11.27	382.5	240.7	12.61	1.091
4.053	118.9	112.2	123.3	-18.81	-22.98	-9.247	11.35	377.6	267.8	11.87	1.106
4.007	128.2	124.8	137.2	-18.83	-23.08	-9.253	11.40	372.0	297.8	11.18	1.122