Cooling Curve : Full Field:p/k=6:Log(To) = 7.5:[Fe/H] = -2.0											

log(T)	ne	nH	nt	log(lambda net)	log(lambda norm)	log(U)	log(taucool)	P12	rho24	Ci	mubar

7.500	0.0338	0.0300	0.0319	-25.89	-22.92	-9.366	14.74	289.1	0.072	675.0	0.965
7.444	0.0407	0.0361	0.0384	-25.75	-22.94	-9.342	14.70	303.3	0.076	630.4	0.965
7.395	0.0471	0.0418	0.0444	-25.64	-22.96	-9.327	14.67	314.3	0.088	596.2	0.965
7.346	0.0543	0.0482	0.0513	-25.54	-22.98	-9.314	14.65	323.5	0.102	563.3	0.965
7.296	0.0625	0.0554	0.0589	-25.44	-23.00	-9.304	14.62	331.3	0.117	531.7	0.965
7.245	0.0716	0.0635	0.0675	-25.34	-23.02	-9.296	14.59	337.9	0.134	501.5	0.965
7.194	0.0820	0.0726	0.0773	-25.24	-23.04	-9.288	14.55	343.7	0.154	472.8	0.965
7.142	0.0936	0.0830	0.0883	-25.14	-23.06	-9.282	14.52	348.6	0.176	445.6	0.965
7.091	0.1068	0.0947	0.1007	-25.05	-23.08	-9.276	14.49	352.9	0.200	419.7	0.965
7.038	0.1217	0.1079	0.1148	-24.95	-23.10	-9.272	14.45	356.7	0.228	395.3	0.965
6.986	0.1386	0.1228	0.1307	-24.86	-23.11	-9.268	14.42	359.9	0.260	372.2	0.965
6.933	0.1576	0.1397	0.1486	-24.76	-23.13	-9.265	14.38	362.8	0.296	350.3	0.965
6.881	0.1792	0.1588	0.1690	-24.67	-23.15	-9.261	14.35	365.3	0.336	329.7	0.965
6.828	0.2036	0.1804	0.1920	-24.57	-23.16	-9.259	14.31	367.4	0.382	310.2	0.965
6.775	0.2312	0.2049	0.2180	-24.48	-23.18	-9.256	14.27	369.4	0.434	291.9	0.965
6.722	0.2624	0.2325	0.2474	-24.38	-23.20	-9.254	14.23	371.0	0.492	274.6	0.965
6.669	0.2977	0.2639	0.2808	-24.29	-23.21	-9.253	14.20	372.5	0.558	258.3	0.965
6.616	0.3377	0.2993	0.3185	-24.19	-23.22	-9.251	14.15	373.8	0.633	242.9	0.965
6.562	0.3829	0.3394	0.3611	-24.09	-23.23	-9.250	14.11	375.0	0.718	228.5	0.965
6.509	0.4341	0.3848	0.4094	-23.99	-23.24	-9.249	14.06	376.0	0.814	214.9	0.965
6.456	0.4921	0.4361	0.4641	-23.89	-23.25	-9.247	14.02	376.8	0.923	202.1	0.965
6.402	0.5577	0.4943	0.5259	-23.78	-23.25	-9.247	13.97	377.6	1.046	190.0	0.965
6.349	0.6319	0.5600	0.5959	-23.67	-23.24	-9.246	13.91	378.3	1.185	178.7	0.965
6.295	0.7158	0.6345	0.6751	-23.54	-23.22	-9.246	13.84	378.9	1.343	168.0	0.965
6.242	0.8109	0.7187	0.7647	-23.42	-23.21	-9.244	13.77	379.4	1.521	157.9	0.965
6.188	0.9184	0.8140	0.8662	-23.30	-23.21	-9.244	13.70	379.9	1.723	148.5	0.965
6.134	1.040	0.9219	0.9810	-23.20	-23.21	-9.244	13.66	380.3	1.951	139.6	0.965
6.081	1.178	1.044	1.111	-23.09	-23.21	-9.243	13.60	380.7	2.209	131.3	0.965
6.027	1.334	1.182	1.258	-22.98	-23.21	-9.243	13.55	381.0	2.502	123.4	0.965
5.974	1.510	1.339	1.424	-22.86	-23.19	-9.242	13.48	381.3	2.833	116.0	0.965
5.920	1.710	1.516	1.613	-22.73	-23.17	-9.242	13.41	381.6	3.207	109.1	0.965
5.866	1.936	1.716	1.826	-22.59	-23.14	-9.242	13.32	381.8	3.631	102.5	0.965
5.813	2.192	1.943	2.067	-22.42	-23.07	-9.242	13.21	382.0	4.111	96.39	0.965
5.759	2.481	2.199	2.340	-22.24	-23.01	-9.242	13.08	382.1	4.654	90.62	0.965
5.705	2.809	2.489	2.649	-22.10	-22.97	-9.242	12.99	382.3	5.268	85.18	0.965
5.652	3.179	2.818	2.999	-21.98	-22.96	-9.241	12.93	382.4	5.964	80.08	0.965
5.598	3.599	3.190	3.394	-21.84	-22.93	-9.241	12.84	382.5	6.751	75.28	0.965
5.544	4.074	3.611	3.842	-21.66	-22.86	-9.241	12.71	382.7	7.641	70.76	0.965
5.491	4.610	4.086	4.348	-21.43	-22.73	-9.241	12.54	382.7	8.648	66.53	0.965
5.437	5.214	4.622	4.918	-21.17	-22.58	-9.241	12.33	382.8	9.781	62.56	0.965
5.384	5.898	5.228	5.563	-20.95	-22.47	-9.241	12.17	382.9	11.06	58.83	0.965
5.330	6.674	5.917	6.296	-20.79	-22.41	-9.241	12.06	382.9	12.52	55.30	0.965
5.276	7.553	6.696	7.125	-20.66	-22.39	-9.241	11.98	383.0	14.17	51.99	0.965
5.223	8.547	7.578	8.064	-20.54	-22.38	-9.240	11.92	383.0	16.04	48.87	0.966
5.169	9.671	8.577	9.126	-20.42	-22.37	-9.241	11.85	383.0	18.15	45.94	0.966
5.115	10.94	9.707	10.33	-20.31	-22.36	-9.241	11.79	383.0	20.54	43.18	0.966
5.062	12.37	10.98	11.69	-20.19	-22.35	-9.241	11.73	382.8	23.25	40.58	0.966
5.008	13.98	12.43	13.23	-20.10	-22.37	-9.241	11.69	382.6	26.31	38.14	0.967
4.955	15.77	14.05	14.95	-20.03	-22.40	-9.241	11.67	382.3	29.73	35.86	0.968
4.903	17.74	15.84	16.85	-19.98	-22.46	-9.242	11.67	381.8	33.52	33.75	0.969
4.851	19.94	17.86	19.00	-19.96	-22.53	-9.242	11.71	381.2	37.79	31.76	0.971
4.798	22.44	20.17	21.46	-19.93	-22.61	-9.243	11.73	380.5	42.69	29.86	0.972
4.744	25.29	22.83	24.29	-19.88	-22.67	-9.245	11.73	379.8	48.31	28.04	0.974
4.690	28.50	25.84	27.49	-19.80	-22.70	-9.246	11.70	379.0	54.67	26.33	0.976
4.637	32.14	29.24	31.11	-19.69	-22.69	-9.246	11.64	378.3	61.87	24.73	0.978
4.584	36.19	33.01	35.13	-19.56	-22.66	-9.247	11.56	377.8	69.86	23.25	0.980
4.536	40.32	36.87	39.24	-19.40	-22.60	-9.247	11.45	377.3	78.03	21.99	0.981
4.493	44.42	40.72	43.33	-19.26	-22.54	-9.248	11.35	376.9	86.18	20.91	0.982
4.437	50.29	46.27	49.24	-19.09	-22.48	-9.249	11.24	376.2	97.92	19.60	0.984
4.391	55.77	51.53	54.83	-18.99	-22.47	-9.249	11.18	375.4	109.0	18.55	0.986
4.350	60.94	56.59	60.22	-18.93	-22.50	-9.250	11.16	374.4	119.8	17.68	0.988
4.302	67.48	63.17	67.21	-18.91	-22.57	-9.252	11.18	372.9	133.7	16.70	0.992
4.260	73.69	69.65	74.12	-18.93	-22.67	-9.254	11.24	371.1	147.4	15.87	0.997
4.212	81.03	77.79	82.77	-19.00	-22.83	-9.258	11.35	368.3	164.6	14.96	1.005
4.167	87.91	86.16	91.68	-19.11	-23.01	-9.263	11.50	364.6	182.3	14.14	1.015
4.124	94.27	95.22	101.3	-19.27	-23.25	-9.269	11.69	359.3	201.5	13.35	1.030
4.077	99.54	106.1	112.9	-19.57	-23.62	-9.280	12.01	350.2	224.6	12.49	1.057
4.036	93.91	116.7	124.1	-20.58	-24.65	-9.309	13.00	343.2	246.9	11.79	1.132