Cooling Curve : Zero Field:p/k=6:Log(To) = 7.5:Solar											

log(T)	ne	nH	nt	log(lambda net)	log(lambda norm)	log(U)	log(taucool)	P12	rho24	Ci	mubar

7.500	0.0363	0.0300	0.0330	-25.65	-22.73	-9.343	14.54	304.4	0.087	652.1	1.034
7.445	0.0435	0.0360	0.0395	-25.50	-22.74	-9.320	14.50	319.1	0.086	609.7	1.034
7.396	0.0504	0.0417	0.0458	-25.37	-22.74	-9.305	14.45	330.7	0.099	576.7	1.034
7.347	0.0581	0.0480	0.0528	-25.25	-22.74	-9.292	14.40	340.4	0.115	544.8	1.034
7.297	0.0668	0.0552	0.0607	-25.12	-22.73	-9.281	14.34	348.6	0.132	514.3	1.034
7.246	0.0765	0.0633	0.0696	-24.99	-22.71	-9.273	14.28	355.7	0.151	485.1	1.034
7.195	0.0876	0.0725	0.0797	-24.85	-22.69	-9.265	14.21	361.7	0.173	457.3	1.034
7.143	0.1001	0.0828	0.0910	-24.70	-22.66	-9.260	14.12	367.0	0.198	431.0	1.034
7.092	0.1141	0.0944	0.1038	-24.55	-22.63	-9.254	14.03	371.5	0.225	406.0	1.034
7.039	0.1301	0.1076	0.1183	-24.41	-22.59	-9.250	13.95	375.4	0.257	382.3	1.034
6.987	0.1481	0.1225	0.1347	-24.28	-22.58	-9.245	13.88	378.9	0.292	359.9	1.034
6.934	0.1684	0.1394	0.1532	-24.17	-22.58	-9.243	13.83	381.9	0.333	338.8	1.034
6.882	0.1915	0.1584	0.1742	-24.07	-22.60	-9.239	13.79	384.5	0.378	318.9	1.034
6.829	0.2175	0.1800	0.1979	-23.98	-22.61	-9.236	13.76	386.8	0.430	300.0	1.034
6.776	0.2470	0.2044	0.2247	-23.87	-22.61	-9.234	13.71	388.8	0.488	282.3	1.034
6.723	0.2803	0.2320	0.2550	-23.74	-22.59	-9.232	13.63	390.5	0.554	265.5	1.034
6.670	0.3181	0.2632	0.2894	-23.60	-22.56	-9.230	13.55	392.1	0.628	249.8	1.034
6.617	0.3608	0.2986	0.3283	-23.46	-22.53	-9.229	13.47	393.4	0.713	234.9	1.035
6.563	0.4091	0.3386	0.3722	-23.32	-22.51	-9.228	13.38	394.6	0.808	221.0	1.035
6.510	0.4637	0.3839	0.4220	-23.19	-22.48	-9.227	13.31	395.6	0.916	207.8	1.035
6.457	0.5255	0.4351	0.4784	-23.03	-22.43	-9.225	13.20	396.5	1.039	195.4	1.035
6.403	0.5954	0.4931	0.5421	-22.84	-22.35	-9.225	13.07	397.3	1.177	183.7	1.035
6.350	0.6744	0.5587	0.6142	-22.62	-22.24	-9.224	12.90	398.0	1.334	172.7	1.035
6.296	0.7638	0.6329	0.6958	-22.38	-22.10	-9.224	12.72	398.6	1.511	162.4	1.035
6.243	0.8649	0.7169	0.7881	-22.15	-21.99	-9.223	12.54	399.1	1.711	152.7	1.035
6.189	0.9794	0.8119	0.8926	-22.01	-21.95	-9.223	12.46	399.5	1.938	143.6	1.035
6.136	1.109	0.9195	1.011	-21.90	-21.95	-9.221	12.40	399.9	2.195	135.0	1.035
6.082	1.255	1.041	1.145	-21.81	-21.97	-9.222	12.37	400.3	2.486	126.9	1.036
6.028	1.421	1.179	1.296	-21.71	-21.98	-9.222	12.32	400.6	2.815	119.3	1.036
5.975	1.609	1.335	1.468	-21.61	-21.98	-9.221	12.27	400.8	3.187	112.2	1.036
5.921	1.821	1.511	1.661	-21.49	-21.97	-9.221	12.21	401.1	3.608	105.4	1.036
5.868	2.061	1.711	1.881	-21.36	-21.94	-9.220	12.13	401.3	4.084	99.13	1.036
5.814	2.332	1.936	2.128	-21.19	-21.89	-9.220	12.02	401.4	4.621	93.20	1.036
5.761	2.640	2.191	2.409	-21.03	-21.83	-9.220	11.91	401.6	5.231	87.62	1.036
5.707	2.985	2.478	2.724	-20.89	-21.80	-9.220	11.82	401.7	5.915	82.41	1.036
5.654	3.378	2.805	3.084	-20.75	-21.77	-9.219	11.74	401.9	6.696	77.47	1.036
5.600	3.823	3.175	3.490	-20.60	-21.73	-9.220	11.64	402.0	7.578	72.83	1.036
5.546	4.325	3.592	3.949	-20.43	-21.66	-9.220	11.52	402.0	8.575	68.47	1.036
5.493	4.893	4.065	4.469	-20.24	-21.58	-9.219	11.39	402.1	9.704	64.37	1.036
5.440	5.523	4.589	5.045	-20.05	-21.49	-9.220	11.25	402.2	10.95	60.59	1.037
5.389	6.222	5.171	5.684	-19.88	-21.43	-9.219	11.13	402.2	12.34	57.08	1.037
5.336	7.019	5.834	6.414	-19.74	-21.39	-9.220	11.05	402.2	13.93	53.74	1.037
5.283	7.932	6.595	7.250	-19.61	-21.37	-9.220	10.97	402.2	15.74	50.55	1.037
5.229	8.974	7.464	8.205	-19.50	-21.37	-9.220	10.91	402.2	17.82	47.51	1.037
5.176	10.15	8.447	9.286	-19.40	-21.37	-9.219	10.87	402.2	20.16	44.66	1.037
5.122	11.49	9.561	10.51	-19.31	-21.39	-9.219	10.83	402.1	22.82	41.98	1.038
5.068	12.99	10.82	11.90	-19.23	-21.42	-9.220	10.80	402.0	25.83	39.45	1.038
5.014	14.69	12.25	13.46	-19.17	-21.46	-9.220	10.80	401.9	29.23	37.08	1.038
4.961	16.61	13.86	15.24	-19.10	-21.51	-9.220	10.78	401.7	33.09	34.84	1.039
4.907	18.77	15.69	17.25	-19.04	-21.55	-9.220	10.77	401.4	37.45	32.74	1.040
4.853	21.22	17.75	19.52	-18.98	-21.60	-9.221	10.77	401.1	42.38	30.77	1.040
4.800	23.97	20.09	22.09	-18.93	-21.66	-9.221	10.77	400.8	47.96	28.91	1.041
4.746	27.09	22.74	25.00	-18.88	-21.71	-9.221	10.77	400.6	54.28	27.17	1.042
4.693	30.53	25.66	28.21	-18.84	-21.78	-9.222	10.78	400.3	61.26	25.56	1.043
4.646	33.98	28.60	31.44	-18.80	-21.83	-9.222	10.79	400.0	68.28	24.20	1.044
4.604	37.41	31.54	34.67	-18.77	-21.88	-9.222	10.80	399.7	75.28	23.04	1.045
4.547	42.53	35.95	39.52	-18.72	-21.95	-9.223	10.81	399.2	85.81	21.57	1.046
4.497	47.62	40.36	44.36	-18.67	-22.00	-9.223	10.81	398.6	96.33	20.34	1.047
4.452	52.66	44.75	49.19	-18.63	-22.05	-9.224	10.81	398.1	106.8	19.30	1.049
4.412	57.59	49.10	53.97	-18.61	-22.10	-9.224	10.83	397.4	117.2	18.41	1.051
4.364	64.00	54.83	60.28	-18.59	-22.18	-9.225	10.86	396.4	130.9	17.40	1.053
4.321	70.22	60.51	66.52	-18.59	-22.26	-9.227	10.90	395.3	144.4	16.54	1.056
4.273	77.73	67.54	74.25	-18.61	-22.37	-9.229	10.96	393.6	161.2	15.62	1.061
4.230	84.91	74.51	81.91	-18.63	-22.48	-9.232	11.02	391.6	177.9	14.84	1.066
4.185	93.08	82.82	91.05	-18.67	-22.60	-9.234	11.10	388.9	197.7	14.02	1.074
4.143	100.7	91.08	100.1	-18.71	-22.71	-9.238	11.17	385.8	217.4	13.32	1.082
4.100	109.0	100.6	110.6	-18.74	-22.83	-9.242	11.24	381.8	240.2	12.61	1.094
4.055	117.6	111.5	122.6	-18.77	-22.93	-9.248	11.30	376.8	266.2	11.90	1.108
4.015	125.5	122.3	134.4	-18.78	-23.01	-9.254	11.34	371.7	291.9	11.28	1.123